STEVAL-MKI243A (ASM330LHHXG1)

A_X [mg] 	 A_Y [mg] 	 A_Z [mg] 	A_X [deg] 	 A_Y [deg] 	 A_Z [deg] 	G_X [dps] 	 G_Y [dps] 	 G_Z [dps] 	TEMP [C] 	
-44.713 	 -191.052 	 1003.33 	-2 	 -10 	 79 	0.69125 	 -1.19875 	 -0.62125 	29.2 	
-41.358 	 -191.967 	 1002.23 	-2 	 -10 	 79 	0.84875 	 -1.0675 	 -0.5775 	29.2 	
-44.713 	 -191.845 	 1003.51 	-2 	 -10 	 79 	0.6125 	 -1.1725 	 -0.63875 	29.2 	
-44.103 	 -193.126 	 1003.75 	-2 	 -10 	 79 	0.525 	 -1.21625 	 -0.6125 	29.2 	
-43.676 	 -193.797 	 1001.99 	-2 	 -10 	 79 	0.70875 	 -1.1725 	 -0.6125 	29.2 	
-44.835 	 -193.492 	 1000.64 	-2 	 -10 	 79 	0.84875 	 -1.04125 	 -0.63 	29.2 	
-42.395 	 -191.906 	 1001.38 	-2 	 -10 	 79 	0.805 	 -1.155 	 -0.56 	29.2 	
-40.748 	 -195.505 	 1003.63 	-2 	 -11 	 79 	0.76125 	 -1.09375 	 -0.63 	29.2 	
-42.517 	 -194.712 	 1003.21 	-2 	 -10 	 79 	0.79625 	 -1.0675 	 -0.44625 	29.2 	
-42.273 	 -194.224 	 1002.72 	-2 	 -10 	 79 	0.665 	 -1.02375 	 -0.595 	29.2 	
-42.395 	 -194.529 	 1003.51 	-2 	 -10 	 79 	0.74375 	 -1.28625 	 -0.5425 	29.2 	
-43.188 	 -194.529 	 1002.72 	-2 	 -10 	 79 	0.77 	 -1.11125 	 -0.55125 	29.2 	
-44.53 	 -193.553 	 1002.11 	-2 	 -10 	 79 	0.53375 	 -0.9975 	 -0.6475 	29.2 	
-44.591 	 -193.004 	 1001.44 	-2 	 -10 	 79 	0.7 	 -1.05 	 -0.5775 	29.2 	
-43.737 	 -193.736 	 999.79 	-2 	 -10 	 79 	0.595 	 -1.00625 	 -0.6475 	29.2 	
-44.469 	 -193.309 	 1002.72 	-2 	 -10 	 79 	0.7 	 -1.12 	 -0.44625 	29.2 	
-43.615 	 -192.577 	 1002.78 	-2 	 -10 	 79 	0.62125 	 -1.16375 	 -0.4725 	29.2 	
-42.517 	 -192.394 	 1002.66 	-2 	 -10 	 79 	0.77 	 -1.05 	 -0.455 	29.2 	
-44.042 	 -192.821 	 1002.11 	-2 	 -10 	 79 	0.69125 	 -1.26875 	 -0.6125 	29.2 	
-44.286 	 -193.736 	 1000.7 	-2 	 -10 	 79 	0.60375 	 -1.225 	 -0.5775 	29.2 	
-45.567 	 -193.492 	 999.912 	-2 	 -10 	 79 	0.7175 	 -1.1725 	 -0.55125 	29.2 	
-44.53 	 -191.54 	 1000.52 	-2 	 -10 	 79 	0.84 	 -1.16375 	 -0.44625 	29.2 	
-45.506 	 -192.638 	 1001.31 	-2 	 -10 	 79 	0.77875 	 -1.16375 	 -0.41125 	29.2 	
-46.97 	 -191.601 	 1001.56 	-2 	 -10 	 79 	0.525 	 -1.2075 	 -0.39375 	29.2 	
-45.201 	 -191.174 	 1002.96 	-2 	 -10 	 79 	0.7875 	 -1.2075 	 -0.49 	29.3 	
-46.36 	 -191.601 	 1002.72 	-2 	 -10 	 79 	0.70875 	 -1.21625 	 -0.5425 	29.3 	
-47.641 	 -192.516 	 1003.45 	-2 	 -10 	 79 	0.65625 	 -1.1375 	 -0.55125 	29.3 	
-47.458 	 -191.601 	 1002.84 	-2 	 -10 	 79 	0.805 	 -1.33875 	 -0.48125 	29.3 	
-45.872 	 -191.784 	 1000.22 	-2 	 -10 	 79 	0.88375 	 -1.19 	 -0.39375 	29.3 	
-46.055 	 -190.93 	 1000.58 	-2 	 -10 	 79 	0.62125 	 -1.02375 	 -0.53375 	29.3 	
-44.713 	 -190.747 	 1003.02 	-2 	 -10 	 79 	0.70875 	 -1.18125 	 -0.48125 	29.3 	
-43.188 	 -190.076 	 1002.96 	-2 	 -10 	 79 	0.6475 	 -1.19875 	 -0.55125 	29.3 	
-42.944 	 -189.1 	 1004.61 	-2 	 -10 	 79 	0.76125 	 -1.14625 	 -0.49 	29.2 	
-41.907 	 -188.612 	 1002.84 	-2 	 -10 	 79 	0.81375 	 -1.1725 	 -0.4025 	29.2 	
-40.687 	 -189.71 	 1004.12 	-2 	 -10 	 79 	0.805 	 -1.225 	 -0.51625 	29.2 	
-39.345 	 -189.466 	 1002.9 	-2 	 -10 	 79 	0.72625 	 -1.1375 	 -0.55125 	29.2 	
-41.663 	 -190.198 	 1002.9 	-2 	 -10 	 79 	0.735 	 -1.1375 	 -0.49 	29.2 	
-37.393 	 -190.198 	 1002.35 	-2 	 -10 	 79 	0.88375 	 -1.225 	 -0.41125 	29.2 	
-38.796 	 -192.089 	 999.668 	-2 	 -10 	 79 	0.6475 	 -1.19875 	 -0.4025 	29.2 	
-41.053 	 -191.662 	 1001.38 	-2 	 -10 	 79 	0.805 	 -1.155 	 -0.3675 	29.2 	
-40.138 	 -192.455 	 1004.3 	-2 	 -10 	 79 	0.805 	 -1.1375 	 -0.30625 	29.2 	
-41.175 	 -191.296 	 1006.01 	-2 	 -10 	 79 	0.735 	 -1.14625 	 -0.4025 	29.2 	
-42.395 	 -195.444 	 1001.74 	-2 	 -11 	 79 	0.63 	 -1.1375 	 -0.49875 	29.2 	
-44.286 	 -193.37 	 1001.5 	-2 	 -10 	 79 	0.63 	 -1.04125 	 -0.42 	29.2 	
-44.103 	 -193.126 	 1001.74 	-2 	 -10 	 79 	0.6825 	 -1.07625 	 -0.4375 	29.2 	
-46.726 	 -193.614 	 1000.64 	-2 	 -10 	 79 	0.91 	 -1.085 	 -0.39375 	29.2 	
-47.58 	 -195.566 	 1001.99 	-2 	 -11 	 79 	0.70875 	 -1.16375 	 -0.5775 	29.2 	
-49.654 	 -197.518 	 1001.56 	-2 	 -11 	 79 	0.525 	 -1.28625 	 -0.5075 	29.2 	
-49.898 	 -196.969 	 1000.28 	-2 	 -11 	 79 	0.69125 	 -1.23375 	 -0.42875 	29.2 	
-53.436 	 -197.823 	 1000.4 	-2 	 -11 	 79 	0.72625 	 -1.085 	 -0.49 	29.2 	
-52.033 	 -197.579 	 1000.4 	-2 	 -11 	 79 	0.665 	 -1.02375 	 -0.5075 	29.2 	
-54.29 	 -197.518 	 1002.66 	-3 	 -11 	 79 	0.79625 	 -1.02375 	 -0.455 	29.2 	
-56.974 	 -197.518 	 1001.44 	-3 	 -11 	 79 	0.805 	 -1.12 	 -0.53375 	29.2 	
-56.303 	 -198.372 	 1000.1 	-3 	 -11 	 78 	0.7525 	 -1.155 	 -0.525 	29.2 	
-56.059 	 -196.237 	 1000.52 	-3 	 -11 	 79 	0.86625 	 -1.19 	 -0.56875 	29.2 	
-54.778 	 -195.383 	 1001.5 	-3 	 -11 	 79 	0.69125 	 -1.19 	 -0.70875 	29.2 	
-55.083 	 -194.59 	 997.96 	-3 	 -11 	 79 	0.79625 	 -1.30375 	 -0.56 	29.2 	
-54.473 	 -194.224 	 999.363 	-3 	 -10 	 79 	0.76125 	 -1.19875 	 -0.49 	29.2 	
-52.521 	 -194.651 	 1000.89 	-2 	 -10 	 79 	0.77 	 -1.18125 	 -0.63 	29.2 	
-54.29 	 -192.943 	 1002.41 	-3 	 -10 	 79 	0.79625 	 -1.14625 	 -0.7525 	29.2 	
-53.375 	 -192.272 	 1004.61 	-2 	 -10 	 79 	0.7525 	 -1.1025 	 -0.72625 	29.2 	
-52.948 	 -191.296 	 1004.3 	-2 	 -10 	 79 	0.77 	 -1.09375 	 -0.735 	29.2 	
-49.898 	 -190.137 	 1003.88 	-2 	 -10 	 79 	0.79625 	 -1.32125 	 -0.735 	29.2 	
-50.874 	 -188.856 	 1001.01 	-2 	 -10 	 79 	0.7 	 -1.18125 	 -0.665 	29.2 	
-48.251 	 -189.344 	 1001.5 	-2 	 -10 	 79 	0.595 	 -1.19 	 -0.63875 	29.2 	
-46.055 	 -186.355 	 1002.96 	-2 	 -10 	 79 	0.81375 	 -1.2425 	 -0.735 	29.2 	
-47.519 	 -186.66 	 1003.51 	-2 	 -10 	 79 	0.67375 	 -1.1725 	 -0.56 	29.2 	
-46.482 	 -186.538 	 1002.47 	-2 	 -10 	 79 	0.79625 	 -1.0675 	 -0.60375 	29.2 	
-45.872 	 -185.928 	 1004.18 	-2 	 -10 	 79 	0.74375 	 -1.12 	 -0.6475 	29.2 	
-42.944 	 -187.941 	 1006.38 	-2 	 -10 	 79 	0.69125 	 -1.155 	 -0.58625 	29.2 	
-43.371 	 -186.843 	 1004.55 	-2 	 -10 	 79 	0.805 	 -1.16375 	 -0.665 	29.2 	
-40.992 	 -186.904 	 1005.52 	-2 	 -10 	 79 	0.8225 	 -1.225 	 -0.56 	29.2 	
-42.09 	 -186.477 	 1002.17 	-2 	 -10 	 79 	0.8225 	 -1.21625 	 -0.55125 	29.2 	
-40.504 	 -187.758 	 1003.33 	-2 	 -10 	 79 	0.735 	 -1.19 	 -0.53375 	29.2 	
-39.162 	 -189.527 	 1005.34 	-2 	 -10 	 79 	0.74375 	 -1.12 	 -0.595 	29.2 	
-42.151 	 -188.673 	 1006.01 	-2 	 -10 	 79 	0.69125 	 -1.00625 	 -0.5775 	29.2 	
-40.992 	 -188.978 	 1004 	-2 	 -10 	 79 	0.805 	 -1.05875 	 -0.6475 	29.2 	
-41.419 	 -188.734 	 1004.37 	-2 	 -10 	 79 	0.67375 	 -1.1375 	 -0.65625 	29.2 	
-41.053 	 -192.394 	 1004.24 	-2 	 -10 	 79 	0.4375 	 -1.04125 	 -0.62125 	29.2 	
-43.615 	 -191.174 	 1002.23 	-2 	 -10 	 79 	0.5775 	 -1.155 	 -0.62125 	29.2 	
-41.175 	 -191.845 	 1003.39 	-2 	 -10 	 79 	0.63875 	 -1.09375 	 -0.65625 	29.2 	
-40.382 	 -192.638 	 1001.92 	-2 	 -10 	 79 	0.70875 	 -1.2775 	 -0.62125 	29.2 	
-43.005 	 -193.492 	 1002.23 	-2 	 -10 	 79 	0.76125 	 -1.23375 	 -0.6475 	29.2 	
-42.822 	 -193.309 	 1001.99 	-2 	 -10 	 79 	0.74375 	 -1.16375 	 -0.63875 	29.2 	
-42.395 	 -195.017 	 1002.6 	-2 	 -10 	 79 	0.5425 	 -1.1375 	 -0.60375 	29.2 	
-42.578 	 -192.821 	 1002.47 	-2 	 -10 	 79 	0.60375 	 -1.085 	 -0.6825 	29.2 	
-43.92 	 -194.59 	 1001.8 	-2 	 -10 	 79 	0.81375 	 -1.14625 	 -0.63875 	29.2 	
-44.408 	 -195.505 	 1001.8 	-2 	 -11 	 79 	0.805 	 -1.18125 	 -0.63 	29.2 	
-42.517 	 -194.651 	 1000.03 	-2 	 -11 	 79 	0.79625 	 -1.14625 	 -0.55125 	29.2 	
-45.201 	 -195.566 	 1000.89 	-2 	 -11 	 79 	0.86625 	 -1.19875 	 -0.5775 	29.2 	
-45.323 	 -194.834 	 1001.38 	-2 	 -10 	 79 	0.69125 	 -1.1725 	 -0.7525 	29.2 	
-44.469 	 -195.078 	 1002.6 	-2 	 -11 	 79 	0.6825 	 -1.09375 	 -0.60375 	29.2 	
-44.713 	 -194.651 	 1003.82 	-2 	 -10 	 79 	0.7 	 -1.18125 	 -0.62125 	29.2 	
-44.53 	 -196.115 	 1002.47 	-2 	 -11 	 79 	0.77875 	 -1.19875 	 -0.44625 	29.2 	
-46.116 	 -195.322 	 1001.38 	-2 	 -11 	 79 	0.7175 	 -1.19875 	 -0.5425 	29.2 	
-46.116 	 -194.956 	 1002.78 	-2 	 -10 	 79 	0.72625 	 -1.26875 	 -0.63875 	29.2 	
-44.53 	 -193.98 	 1001.38 	-2 	 -10 	 79 	0.77875 	 -1.19875 	 -0.6475 	29.2 	
-46.116 	 -192.76 	 1002.72 	-2 	 -10 	 79 	0.91 	 -1.07625 	 -0.67375 	29.2 	
-45.811 	 -193.614 	 1003.57 	-2 	 -10 	 79 	0.7525 	 -1.09375 	 -0.60375 	29.2 	
-46.36 	 -194.285 	 1003.27 	-2 	 -10 	 79 	0.805 	 -1.05875 	 -0.49875 	29.2 	
-47.214 	 -193.675 	 1001.5 	-2 	 -10 	 79 	0.79625 	 -1.225 	 -0.49875 	29.2 	
-47.824 	 -192.516 	 1003.39 	-2 	 -10 	 79 	0.83125 	 -1.1375 	 -0.595 	29.2 	
-48.495 	 -192.15 	 1001.25 	-2 	 -10 	 79 	0.90125 	 -1.14625 	 -0.525 	29.2 	
-47.336 	 -191.906 	 1004.24 	-2 	 -10 	 79 	0.74375 	 -1.1375 	 -0.49 	29.2 	
-47.214 	 -191.357 	 1002.9 	-2 	 -10 	 79 	0.69125 	 -1.19875 	 -0.5425 	29.3 	
-44.835 	 -192.15 	 1001.5 	-2 	 -10 	 79 	0.7875 	 -1.07625 	 -0.51625 	29.3 	
-47.58 	 -191.601 	 1001.99 	-2 	 -10 	 79 	0.74375 	 -1.1725 	 -0.55125 	29.3 	
-45.323 	 -191.662 	 1001.99 	-2 	 -10 	 79 	0.74375 	 -1.1725 	 -0.4725 	29.3 	
-44.225 	 -190.747 	 1002.84 	-2 	 -10 	 79 	0.6125 	 -1.2075 	 -0.5425 	29.3 	
-44.896 	 -189.588 	 1002.05 	-2 	 -10 	 79 	0.72625 	 -0.98 	 -0.525 	29.3 	
-44.896 	 -190.564 	 1002.96 	-2 	 -10 	 79 	0.8225 	 -1.07625 	 -0.56875 	29.3 	
-44.896 	 -190.259 	 1001.99 	-2 	 -10 	 79 	0.77 	 -1.04125 	 -0.56 	29.3 	
-43.737 	 -190.869 	 1001.68 	-2 	 -10 	 79 	0.63875 	 -1.12 	 -0.5775 	29.2 	
-41.846 	 -188.978 	 1003.39 	-2 	 -10 	 79 	0.70875 	 -1.225 	 -0.51625 	29.2 	
-42.456 	 -189.893 	 1003.21 	-2 	 -10 	 79 	0.77 	 -1.1725 	 -0.55125 	29.2 	
-42.517 	 -189.344 	 1004.91 	-2 	 -10 	 79 	0.875 	 -1.155 	 -0.56875 	29.2 	
-41.907 	 -192.455 	 1003.33 	-2 	 -10 	 79 	0.77875 	 -1.1375 	 -0.49875 	29.2 	
-42.822 	 -190.93 	 1002.84 	-2 	 -10 	 79 	0.8575 	 -1.26 	 -0.525 	29.2 	
-41.419 	 -190.076 	 1003.21 	-2 	 -10 	 79 	0.77875 	 -1.155 	 -0.5775 	29.2 	
-41.907 	 -190.381 	 1004.91 	-2 	 -10 	 79 	0.875 	 -1.05875 	 -0.44625 	29.2 	
-42.029 	 -190.137 	 1001.38 	-2 	 -10 	 79 	0.84 	 -1.225 	 -0.55125 	29.2 	
-41.236 	 -189.344 	 1002.96 	-2 	 -10 	 79 	0.86625 	 -1.1725 	 -0.5425 	29.2 	
-41.602 	 -190.198 	 1003.14 	-2 	 -10 	 79 	0.70875 	 -1.00625 	 -0.51625 	29.2 	
-43.615 	 -189.466 	 1004.12 	-2 	 -10 	 79 	0.72625 	 -1.2075 	 -0.49 	29.2 	
-41.724 	 -191.662 	 1003.57 	-2 	 -10 	 79 	0.77 	 -1.30375 	 -0.6125 	29.2 	
-43.92 	 -191.845 	 1001.92 	-2 	 -10 	 79 	0.79625 	 -1.12 	 -0.49875 	29.2 	
-44.896 	 -191.479 	 1002.29 	-2 	 -10 	 79 	0.76125 	 -1.2075 	 -0.41125 	29.2 	
-44.53 	 -189.893 	 1001.74 	-2 	 -10 	 79 	0.735 	 -1.1375 	 -0.5425 	29.2 	
-43.127 	 -191.357 	 1001.31 	-2 	 -10 	 79 	0.805 	 -0.9975 	 -0.4725 	29.2 	
-44.53 	 -193.431 	 1002.53 	-2 	 -10 	 79 	0.74375 	 -1.1725 	 -0.4725 	29.2 	
-44.713 	 -192.516 	 1004.18 	-2 	 -10 	 79 	0.67375 	 -1.1725 	 -0.48125 	29.2 	
-45.994 	 -191.113 	 1001.38 	-2 	 -10 	 79 	0.69125 	 -1.12875 	 -0.48125 	29.2 	
-44.164 	 -191.357 	 1002.23 	-2 	 -10 	 79 	0.875 	 -1.05875 	 -0.525 	29.2 	
-45.384 	 -191.113 	 1001.99 	-2 	 -10 	 79 	0.83125 	 -1.12875 	 -0.46375 	29.2 	
-45.872 	 -192.272 	 1000.95 	-2 	 -10 	 79 	0.90125 	 -1.19 	 -0.5425 	29.2 	
-46.482 	 -190.32 	 1004.06 	-2 	 -10 	 79 	0.77875 	 -1.1725 	 -0.51625 	29.2 	
-44.652 	 -190.381 	 1002.47 	-2 	 -10 	 79 	0.6825 	 -1.33875 	 -0.525 	29.2 	
-46.665 	 -190.869 	 1003.45 	-2 	 -10 	 79 	0.69125 	 -1.32125 	 -0.42 	29.2 	
-44.408 	 -190.625 	 1003.88 	-2 	 -10 	 79 	0.74375 	 -1.295 	 -0.44625 	29.2 	
-43.371 	 -190.564 	 1002.96 	-2 	 -10 	 79 	0.805 	 -1.21625 	 -0.455 	29.2 	
-43.676 	 -191.967 	 1001.07 	-2 	 -10 	 79 	0.6475 	 -1.16375 	 -0.56875 	29.2 	
-45.445 	 -192.15 	 1002.72 	-2 	 -10 	 79 	0.77875 	 -1.085 	 -0.4375 	29.2 	
-44.713 	 -191.54 	 1003.08 	-2 	 -10 	 79 	0.76125 	 -1.085 	 -0.42 	29.2 	
-44.713 	 -191.906 	 1002.23 	-2 	 -10 	 79 	0.77 	 -1.0675 	 -0.525 	29.2 	
-45.018 	 -190.625 	 1004.06 	-2 	 -10 	 79 	0.7875 	 -1.19 	 -0.51625 	29.2 	
-46.482 	 -192.638 	 1004.18 	-2 	 -10 	 79 	0.8225 	 -1.1725 	 -0.48125 	29.2 	
-44.652 	 -194.224 	 1002.72 	-2 	 -10 	 79 	0.84875 	 -1.2425 	 -0.49875 	29.2 	
-46.848 	 -193.98 	 1001.56 	-2 	 -10 	 79 	0.7 	 -1.1375 	 -0.49 	29.2 	
-46.543 	 -195.2 	 1001.99 	-2 	 -11 	 79 	0.72625 	 -1.00625 	 -0.5775 	29.2 	
-47.336 	 -194.834 	 1003.45 	-2 	 -10 	 79 	0.8225 	 -1.12875 	 -0.58625 	29.2 	
-48.739 	 -194.529 	 1001.19 	-2 	 -10 	 79 	0.62125 	 -1.0675 	 -0.5075 	29.2 	
-50.935 	 -194.59 	 1000.28 	-2 	 -10 	 79 	0.63 	 -1.19 	 -0.4375 	29.2 	
-53.192 	 -195.139 	 999.424 	-2 	 -11 	 79 	0.875 	 -1.25125 	 -0.48125 	29.2 	
-52.948 	 -193.187 	 998.57 	-2 	 -10 	 79 	0.8225 	 -1.225 	 -0.49 	29.2 	
-52.582 	 -197.03 	 1003.45 	-2 	 -11 	 79 	0.735 	 -1.365 	 -0.53375 	29.2 	
-53.985 	 -200.934 	 1005.65 	-3 	 -11 	 78 	0.63875 	 -1.18125 	 -0.56 	29.2 	
-53.436 	 -195.688 	 1007.23 	-2 	 -10 	 79 	0.7175 	 -1.09375 	 -0.7 	29.2 	
-53.009 	 -196.176 	 1006.5 	-2 	 -11 	 79 	0.5425 	 -1.12 	 -0.665 	29.2 	
-50.264 	 -199.775 	 1000.4 	-2 	 -11 	 78 	0.77 	 -1.23375 	 -0.67375 	29.2 	
-47.946 	 -190.137 	 996.984 	-2 	 -10 	 79 	0.98 	 -1.12875 	 -0.62125 	29.2 	
-49.654 	 -191.54 	 994.971 	-2 	 -10 	 79 	0.69125 	 -1.0325 	 -0.5075 	29.2 	
-49.044 	 -198.555 	 997.228 	-2 	 -11 	 78 	0.56875 	 -1.21625 	 -0.56875 	29.2 	
-46.482 	 -191.784 	 998.265 	-2 	 -10 	 79 	0.60375 	 -1.23375 	 -0.665 	29.2 	
-43.615 	 -189.161 	 1007.17 	-2 	 -10 	 79 	0.55125 	 -1.26875 	 -0.67375 	29.2 	
-44.835 	 -199.592 	 1012.6 	-2 	 -11 	 79 	0.49 	 -1.085 	 -0.56875 	29.2 	
-44.652 	 -194.346 	 1009.67 	-2 	 -10 	 79 	1.015 	 -0.93625 	 -0.6125 	29.2 	
-44.469 	 -186.416 	 1004 	-2 	 -10 	 79 	0.84 	 -1.1025 	 -0.62125 	29.2 	
-41.663 	 -190.747 	 996.984 	-2 	 -10 	 79 	0.74375 	 -1.12 	 -0.56 	29.2 	
-41.48 	 -190.686 	 993.934 	-2 	 -10 	 79 	0.7875 	 -1.12 	 -0.5425 	29.2 	
-40.626 	 -184.159 	 998.936 	-2 	 -10 	 79 	0.72625 	 -1.23375 	 -0.51625 	29.2 	
-41.602 	 -189.893 	 1003.63 	-2 	 -10 	 79 	0.53375 	 -1.28625 	 -0.5425 	29.2 	
-41.236 	 -193.675 	 1008.02 	-2 	 -10 	 79 	0.56 	 -1.19 	 -0.55125 	29.2 	
-40.382 	 -189.832 	 1008.45 	-2 	 -10 	 79 	0.805 	 -1.1025 	 -0.525 	29.2 	
-40.443 	 -189.1 	 1009.31 	-2 	 -10 	 79 	0.63875 	 -1.09375 	 -0.55125 	29.2 	
-42.7 	 -190.747 	 1006.01 	-2 	 -10 	 79 	0.83125 	 -1.015 	 -0.5075 	29.2 	
-44.286 	 -186.66 	 1000.34 	-2 	 -10 	 79 	0.875 	 -1.12875 	 -0.5775 	29.2 	
-43.432 	 -185.684 	 994.483 	-2 	 -10 	 79 	0.77 	 -1.155 	 -0.525 	29.2 	
-41.724 	 -189.1 	 996.496 	-2 	 -10 	 79 	0.63875 	 -1.26 	 -0.46375 	29.2 	
-44.469 	 -189.039 	 1002.72 	-2 	 -10 	 79 	0.67375 	 -1.21625 	 -0.53375 	29.2 	
-43.92 	 -190.32 	 1006.74 	-2 	 -10 	 79 	0.67375 	 -1.16375 	 -0.56 	29.2 	
-43.92 	 -190.686 	 1008.39 	-2 	 -10 	 79 	0.53375 	 -1.14625 	 -0.53375 	29.2 	
-45.628 	 -193.004 	 1007.17 	-2 	 -10 	 79 	0.65625 	 -1.04125 	 -0.53375 	29.2 	
-46.543 	 -187.88 	 1002.23 	-2 	 -10 	 79 	0.91875 	 -1.015 	 -0.62125 	29.2 	
-44.042 	 -189.954 	 1000.58 	-2 	 -10 	 79 	0.84875 	 -1.1025 	 -0.58625 	29.2 	
-43.798 	 -191.479 	 998.631 	-2 	 -10 	 79 	0.7525 	 -1.0675 	 -0.665 	29.2 	
-43.127 	 -192.699 	 999.607 	-2 	 -10 	 79 	0.805 	 -1.1725 	 -0.65625 	29.2 	
-45.872 	 -192.455 	 1002.96 	-2 	 -10 	 79 	0.72625 	 -1.1375 	 -0.65625 	29.2 	
-44.896 	 -194.346 	 1007.9 	-2 	 -10 	 79 	0.63 	 -0.9975 	 -0.65625 	29.2 	
-45.933 	 -196.054 	 1005.89 	-2 	 -11 	 79 	0.6475 	 -1.2425 	 -0.58625 	29.2 	
-43.493 	 -193.126 	 1005.04 	-2 	 -10 	 79 	0.8225 	 -1.19 	 -0.6475 	29.2 	
-43.981 	 -193.431 	 1001.56 	-2 	 -10 	 79 	0.70875 	 -1.1375 	 -0.69125 	29.2 	
-45.75 	 -194.346 	 999.485 	-2 	 -10 	 79 	0.77 	 -1.225 	 -0.65625 	29.2 	
-45.628 	 -191.845 	 998.448 	-2 	 -10 	 79 	0.91 	 -1.1375 	 -0.60375 	29.2 	
-44.225 	 -192.394 	 1002.05 	-2 	 -10 	 79 	0.7 	 -1.2075 	 -0.595 	29.2 	
-44.103 	 -196.054 	 1000.77 	-2 	 -11 	 79 	0.5075 	 -1.1375 	 -0.56 	29.2 	
-44.469 	 -193.004 	 1004.61 	-2 	 -10 	 79 	0.665 	 -1.18125 	 -0.4375 	29.2 	
-46.482 	 -194.041 	 1005.95 	-2 	 -10 	 79 	0.49 	 -1.12875 	 -0.49875 	29.2 	
-46.299 	 -195.322 	 1005.95 	-2 	 -10 	 79 	0.5425 	 -1.085 	 -0.5075 	29.2 	
-46.97 	 -194.895 	 1003.27 	-2 	 -10 	 79 	0.86625 	 -1.155 	 -0.4375 	29.2 	
-45.75 	 -192.455 	 1000.03 	-2 	 -10 	 79 	0.70875 	 -1.19 	 -0.5075 	29.2 	
-46.238 	 -193.248 	 997.96 	-2 	 -10 	 79 	0.7175 	 -1.23375 	 -0.56 	29.2 	
-49.532 	 -194.834 	 1002.11 	-2 	 -10 	 79 	0.74375 	 -1.04125 	 -0.49875 	29.2 	
-46.543 	 -193.248 	 1002.53 	-2 	 -10 	 79 	0.77875 	 -1.1725 	 -0.35 	29.2 	
-47.031 	 -194.895 	 1004.61 	-2 	 -10 	 79 	0.67375 	 -1.2075 	 -0.42 	29.2 	
-47.397 	 -194.712 	 1006.32 	-2 	 -10 	 79 	0.58625 	 -1.19 	 -0.44625 	29.2 	
-46.97 	 -193.492 	 1001.86 	-2 	 -10 	 79 	0.63875 	 -1.19 	 -0.455 	29.2 	
-44.408 	 -191.784 	 1002.6 	-2 	 -10 	 79 	0.63875 	 -1.015 	 -0.55125 	29.2 	
-44.286 	 -191.601 	 1000.7 	-2 	 -10 	 79 	0.65625 	 -1.11125 	 -0.56 	29.2 	
-43.92 	 -191.784 	 1003.39 	-2 	 -10 	 79 	0.70875 	 -1.16375 	 -0.56875 	29.3 	
-43.676 	 -190.015 	 1003.57 	-2 	 -10 	 79 	0.65625 	 -1.1725 	 -0.53375 	29.3 	
-41.907 	 -190.076 	 1004.61 	-2 	 -10 	 79 	0.76125 	 -1.14625 	 -0.49 	29.3 	
-40.748 	 -190.869 	 1005.22 	-2 	 -10 	 79 	0.665 	 -1.225 	 -0.49875 	29.3 	
-41.053 	 -189.466 	 1004.18 	-2 	 -10 	 79 	0.72625 	 -1.1025 	 -0.55125 	29.3 	
-39.467 	 -191.174 	 1002.41 	-2 	 -10 	 79 	0.7175 	 -1.16375 	 -0.62125 	29.3 	
-38.796 	 -188.49 	 1002.29 	-2 	 -10 	 79 	0.69125 	 -1.2075 	 -0.51625 	29.3 	
-37.759 	 -189.771 	 1002.6 	-2 	 -10 	 79 	0.84875 	 -1.23375 	 -0.525 	29.3 	
-38.247 	 -189.344 	 1003.14 	-2 	 -10 	 79 	0.62125 	 -1.19 	 -0.39375 	29.2 	
-37.149 	 -189.527 	 1004.3 	-2 	 -10 	 79 	0.735 	 -1.19875 	 -0.5075 	29.2 	
-37.393 	 -188.612 	 1002.78 	-2 	 -10 	 79 	0.7175 	 -1.1025 	 -0.48125 	29.2 	
-35.746 	 -189.039 	 1004.43 	-2 	 -10 	 79 	0.6825 	 -1.1375 	 -0.55125 	29.2 	
-37.698 	 -189.283 	 1003.57 	-2 	 -10 	 79 	0.63 	 -1.23375 	 -0.5425 	29.2 	
-39.162 	 -188.368 	 1001.56 	-2 	 -10 	 79 	0.8225 	 -1.16375 	 -0.525 	29.2 	
-37.942 	 -190.503 	 1002.66 	-2 	 -10 	 79 	0.84 	 -1.12 	 -0.41125 	29.2 	
-40.26 	 -190.442 	 1001.68 	-2 	 -10 	 79 	0.70875 	 -1.1375 	 -0.4725 	29.2 	
-40.504 	 -192.577 	 1003.63 	-2 	 -10 	 79 	0.8225 	 -1.1025 	 -0.48125 	29.2 	
-42.944 	 -192.272 	 1003.57 	-2 	 -10 	 79 	0.84875 	 -1.015 	 -0.385 	29.2 	
-43.066 	 -193.309 	 1001.74 	-2 	 -10 	 79 	0.58625 	 -1.04125 	 -0.41125 	29.2 	
-46.055 	 -191.723 	 1001.74 	-2 	 -10 	 79 	0.665 	 -1.09375 	 -0.44625 	29.2 	
-47.092 	 -194.041 	 1002.23 	-2 	 -10 	 79 	0.8575 	 -1.09375 	 -0.455 	29.2 	
-49.837 	 -194.163 	 999.424 	-2 	 -10 	 79 	0.72625 	 -1.2075 	 -0.4025 	29.2 	
-50.142 	 -196.42 	 998.814 	-2 	 -11 	 79 	0.56 	 -1.09375 	 -0.385 	29.2 	
-51.972 	 -196.969 	 1001.19 	-2 	 -11 	 79 	0.665 	 -1.085 	 -0.525 	29.2 	
-54.351 	 -196.603 	 1001.92 	-3 	 -11 	 79 	0.77 	 -1.18125 	 -0.49875 	29.2 	
-54.534 	 -197.152 	 1001.86 	-3 	 -11 	 79 	0.945 	 -1.19875 	 -0.49875 	29.2 	
-54.778 	 -197.579 	 1000.95 	-3 	 -11 	 79 	0.70875 	 -1.09375 	 -0.48125 	29.2 	
-55.937 	 -196.969 	 999.241 	-3 	 -11 	 79 	0.72625 	 -1.19 	 -0.5075 	29.2 	
-55.876 	 -198.799 	 1001.13 	-3 	 -11 	 78 	0.74375 	 -1.09375 	 -0.60375 	29.2 	
-56.303 	 -198.616 	 999.363 	-3 	 -11 	 78 	0.79625 	 -1.12875 	 -0.525 	29.2 	
-55.388 	 -198.25 	 999.912 	-3 	 -11 	 78 	0.58625 	 -1.0675 	 -0.455 	29.2 	
-55.022 	 -195.444 	 1001.44 	-3 	 -11 	 79 	0.7525 	 -1.0675 	 -0.6125 	29.2 	
-54.351 	 -195.078 	 1003.27 	-3 	 -10 	 79 	0.735 	 -1.1725 	 -0.6825 	29.2 	
-54.534 	 -194.712 	 1003.02 	-3 	 -10 	 79 	0.60375 	 -1.1375 	 -0.63 	29.2 	
-53.436 	 -194.773 	 1002.78 	-2 	 -10 	 79 	0.76125 	 -1.0325 	 -0.62125 	29.2 	
-49.776 	 -194.346 	 1001.99 	-2 	 -10 	 79 	0.7875 	 -1.07625 	 -0.5775 	29.2 	
-51.423 	 -193.797 	 1003.27 	-2 	 -10 	 79 	0.79625 	 -1.23375 	 -0.49 	29.2 	
